File: data-raw/photo-filters/KnightX-ND4-resin.csv
Wavelength (nm);Transmittance(%);Std.Dev.
190;0.0119018;0.0117348
194;0.01;0.0169369
198;0.01;0.00889591
202;0.01;0.0146345
206;0.01;0.0308547
210;0.01;0.00864338
214;0.01;0.0102955
218;0.01;0.00634909
222;0.01;0.020043
226;0.01;0.0160848
230;0.01;0.016605
234;0.01;0.0207482
238;0.01;0.0370992
242;0.01;0.012625
246;0.0100608;0.016136
250;0.01;0.00469623
254;0.0191226;0.00203738
258;0.132685;0.00238861
262;0.318713;0.00266109
266;0.497735;0.00238328
270;0.518153;0.00466677
274;0.41513;0.0027799
278;0.279377;0.00329226
282;0.163076;0.00426788
286;0.0874838;0.00480652
290;0.0374335;0.00355441
294;0.0438714;0.00383286
298;0.0243005;0.00712095
302;0.0321164;0.00345504
306;0.0593453;0.00684564
310;0.0838959;0.00276047
314;0.111035;0.00276587
318;0.107515;0.00273133
322;0.0865868;0.00464446
326;0.0497207;0.00351029
330;0.0459437;0.00654501
334;0.0456231;0.00540384
338;0.0274833;0.00287418
342;0.0433618;0.00570628
346;0.0379637;0.00322404
350;0.0849378;0.0084332
354;0.0895521;0.00679954
358;0.180964;0.00582221
362;0.390509;0.00954198
366;0.882243;0.00679315
370;2.03886;0.00847682
374;4.2887;0.0082384
378;7.77557;0.00671998
382;11.3717;0.0074193
386;14.6289;0.00475022
390;17.0258;0.0060633
394;18.6597;0.00983537
398;19.7761;0.00582418
402;20.614;0.0107674
406;21.3515;0.00581926
410;21.9954;0.00908914
414;22.4987;0.005172
418;23.0338;0.00792354
422;23.6785;0.00581088
426;24.3761;0.00633498
430;25.1283;0.00806
434;25.7388;0.00847503
438;26.2758;0.0126766
442;26.7841;0.0132381
446;27.3265;0.00987727
450;27.9016;0.00918225
454;28.538;0.0118074
458;29.1001;0.013585
462;29.544;0.00982461
466;29.9453;0.0111422
470;30.1886;0.00878358
474;30.4268;0.0119097
478;30.6268;0.00882668
482;30.8076;0.00455866
486;30.9495;0.0047384
490;31.0109;0.00835517
494;30.9548;0.00950787
498;30.8838;0.00693223
502;30.8092;0.00659048
506;30.7729;0.00840945
510;30.7544;0.00592312
514;30.6934;0.00595728
518;30.529;0.00585173
522;30.2279;0.00697126
526;29.815;0.00559558
530;29.3411;0.00548663
534;28.8737;0.00565881
538;28.4795;0.00507883
542;28.1833;0.00361662
546;27.9667;0.00316193
550;27.8136;0.00558723
554;27.6413;0.00390301
558;27.3864;0.00529438
562;26.9863;0.00431275
566;26.4184;0.00273522
570;25.7426;0.00267967
574;25.0324;0.0032198
578;24.4234;0.00380038
582;24.0222;0.00240153
586;23.968;0.0031307
590;24.297;0.00531925
594;24.8977;0.00337289
598;25.6273;0.00344736
602;26.2999;0.0067916
606;26.7608;0.00504896
610;26.9212;0.00466825
614;26.7603;0.00394744
618;26.3774;0.00416549
622;25.893;0.0051524
626;25.6112;0.00510841
630;25.4741;0.00610363
634;25.9586;0.0036726
638;27.1115;0.0036621
642;28.8882;0.00506029
646;31.0824;0.00502168
650;33.4511;0.00618556
654;35.8654;0.00323792
658;38.1047;0.00676823
662;40.1558;0.00620721
666;41.8013;0.00482717
670;43.1896;0.00640333
674;44.1737;0.00611188
678;44.9661;0.00597307
682;45.6134;0.00438636
686;46.1313;0.00677446
690;46.617;0.00616172
694;47.0471;0.00422268
698;47.4902;0.0039184
702;47.8942;0.0052624
706;48.2524;0.00602997
710;48.5745;0.00461305
714;48.8384;0.00471802
718;49.0381;0.00535245
722;49.1881;0.00548797
726;49.3004;0.00556616
730;49.3967;0.00450489
734;49.5133;0.0052539
738;49.6546;0.00577987
742;49.8309;0.00557206
746;50.0519;0.00494075
750;50.3253;0.00804982
754;50.6086;0.00548334
758;50.9323;0.0065832
762;51.2242;0.00560279
766;51.5369;0.00472767
770;51.7779;0.00576417
774;51.997;0.00514528
778;52.152;0.00789949
782;52.2527;0.00651031
786;52.313;0.00789405
790;52.3485;0.00890625
794;52.3926;0.00603751
798;52.4174;0.00582088
802;52.4677;0.00703435
806;52.5478;0.00559376
810;52.6596;0.00619274
814;52.8174;0.00697995
818;53.0354;0.00715917
822;53.2683;0.00577803
826;53.542;0.00677925
830;53.8019;0.00686827
834;54.0678;0.00652547
838;54.3196;0.00708934
842;54.5404;0.00710328
846;54.7239;0.0065645
850;54.8606;0.00729996
854;54.9691;0.00741751
858;55.0008;0.00882624
862;55.0235;0.00444203
866;55.0144;0.00660998
870;54.9915;0.00934793
874;54.9524;0.0092181
878;54.9309;0.00889349
882;54.865;0.00900433
886;54.7919;0.00645445
890;54.8144;0.00614879
894;54.8874;0.00803458
898;55.0331;0.00595307
902;55.2664;0.00680917
906;55.5764;0.00734544
910;55.8948;0.00929144
914;56.2176;0.0110658
918;56.564;0.013773
922;56.8386;0.00637829
926;57.0736;0.00760475
930;57.3053;0.0117188
934;57.4703;0.0145847
938;57.6036;0.0141202
942;57.7014;0.00978872
946;57.787;0.0110568
950;57.7878;0.0111496
954;57.7866;0.0103444
958;57.7342;0.0111796
962;57.7648;0.00893369
966;57.695;0.0112445
970;57.6741;0.0105169
974;57.6636;0.0135162
978;57.6589;0.0131389
982;57.6434;0.0168451
986;57.686;0.0109206
990;57.7844;0.0193231
994;57.8297;0.0173064
998;57.9307;0.019545
1002;58.0863;0.0223253
1006;58.2373;0.0261735
1010;58.4603;0.0364365
1014;58.6536;0.02959
1018;58.9461;0.0344439
1022;59.1556;0.0389442
1026;59.356;0.0461016
1030;59.5158;0.0437089
1034;59.7139;0.0417864
1038;59.9772;0.0592924
1042;60.0656;0.0399111
1046;60.3375;0.0627019
1050;60.5113;0.102723
1054;60.2702;0.104646
1058;60.3001;0.116049
1062;60.4223;0.120927
1066;60.5753;0.130305
1070;60.4243;0.121461
1074;60.7095;0.136729
1078;60.177;0.164393
1082;60.0697;0.202732
1086;60.349;0.186855
1090;59.9154;0.266027
1094;59.9767;0.299594
1098;60.0508;0.160117
1100;59.6777;0.30429