File: data-raw/photo-filters/KnightX-ND16-resin.CSV
Wavelength (nm);Transmittance(%);Std.Dev.
190;0.01;0.00455733
194;0.0100454;0.00495956
198;0.0111301;0.0120749
202;0.01;0.031944
206;0.01;0.024662
210;0.01;0.0091324
214;0.01;0.0128259
218;0.01;0.00733093
222;0.01;0.0141694
226;0.01;0.00571026
230;0.01;0.0178843
234;0.01;0.00672049
238;0.01;0.0371088
242;0.01;0.00868819
246;0.01;0.0115526
250;0.01;0.00754746
254;0.0107214;0.00652317
258;0.01;0.0111092
262;0.01;0.0156894
266;0.01;0.0151924
270;0.01;0.0172638
274;0.01;0.0159895
278;0.01;0.0102114
282;0.0104453;0.00258272
286;0.010038;0.014231
290;0.01;0.014387
294;0.01;0.0172849
298;0.013094;0.0247985
302;0.01;0.0142019
306;0.0159642;0.0185931
310;0.010044;0.0101684
314;0.01;0.00908955
318;0.01;0.00362468
322;0.01;0.00873902
326;0.01;0.0162542
330;0.0100331;0.00801052
334;0.01;0.0101241
338;0.0101794;0.0038948
342;0.0101087;0.0120954
346;0.0104407;0.0111931
350;0.0165929;0.010395
354;0.0101513;0.0152663
358;0.0282404;0.00911889
362;0.012933;0.00688142
366;0.0261267;0.0189281
370;0.01;0.012065
374;0.0359014;0.00794078
378;0.0810531;0.00708903
382;0.135468;0.0096108
386;0.162145;0.00699311
390;0.222224;0.00599181
394;0.248637;0.00519783
398;0.278881;0.00645017
402;0.297726;0.00564387
406;0.321991;0.00698396
410;0.360973;0.00804669
414;0.416948;0.00815008
418;0.472739;0.00402451
422;0.555497;0.00627568
426;0.58623;0.00641608
430;0.681109;0.00639335
434;0.731757;0.00553537
438;0.835975;0.00517684
442;0.909918;0.00784137
446;0.974141;0.0071909
450;1.03209;0.00844915
454;1.12055;0.00726802
458;1.16;0.00866301
462;1.24447;0.0098847
466;1.32207;0.00533556
470;1.34731;0.0066717
474;1.40051;0.00609257
478;1.42333;0.00626989
482;1.44493;0.0033958
486;1.44446;0.00290965
490;1.43982;0.00356445
494;1.40618;0.00563421
498;1.37332;0.0039605
502;1.34942;0.00458225
506;1.31636;0.00583758
510;1.29422;0.00626193
514;1.26687;0.00549392
518;1.21255;0.00391828
522;1.16926;0.00310342
526;1.09871;0.00293006
530;1.03019;0.00517076
534;0.953343;0.00631776
538;0.894642;0.00312509
542;0.834931;0.00292322
546;0.791589;0.00389679
550;0.772694;0.00472475
554;0.744417;0.00412857
558;0.71238;0.00380823
562;0.674915;0.00390846
566;0.619534;0.00408747
570;0.565177;0.00342623
574;0.515826;0.00315206
578;0.464005;0.00200241
582;0.446752;0.00329335
586;0.444293;0.00232952
590;0.477464;0.00396443
594;0.516791;0.00287843
598;0.586489;0.00301582
602;0.656016;0.00360529
606;0.714266;0.00309149
610;0.746992;0.00166438
614;0.750627;0.00305751
618;0.748784;0.00225189
622;0.740618;0.00404086
626;0.724126;0.00223343
630;0.750039;0.0026827
634;0.828054;0.00250482
638;0.974897;0.00301166
642;1.2274;0.0051403
646;1.59668;0.00419496
650;2.0439;0.00627932
654;2.58423;0.00392948
658;3.17677;0.00306947
662;3.82121;0.00356548
666;4.43911;0.00381601
670;5.01896;0.00543023
674;5.53636;0.00338849
678;5.9892;0.00288591
682;6.3932;0.00319231
686;6.75067;0.00320964
690;7.06197;0.00300333
694;7.31853;0.00363252
698;7.5769;0.00404627
702;7.80276;0.0019232
706;8.0009;0.00399878
710;8.18318;0.00296394
714;8.35696;0.00350714
718;8.52789;0.00345493
722;8.68063;0.00332946
726;8.83126;0.00350954
730;8.977;0.00332527
734;9.12984;0.00338319
738;9.277;0.00475115
742;9.41276;0.0036456
746;9.56175;0.00346428
750;9.69728;0.00284565
754;9.83555;0.00385366
758;9.96402;0.00371015
762;10.0959;0.00421586
766;10.2045;0.00185974
770;10.3116;0.00455927
774;10.4159;0.00319733
778;10.5177;0.0032406
782;10.6236;0.00294491
786;10.7117;0.00277216
790;10.8176;0.00311185
794;10.9134;0.00384816
798;11.0197;0.00467584
802;11.1395;0.00388383
806;11.2531;0.00267088
810;11.3848;0.00446727
814;11.5212;0.00266344
818;11.6584;0.00450984
822;11.8104;0.00252227
826;11.9592;0.00374038
830;12.1053;0.00301973
834;12.2615;0.0044395
838;12.4048;0.00398363
842;12.5613;0.00468711
846;12.7053;0.00402231
850;12.8411;0.00480234
854;12.9699;0.00528746
858;13.0965;0.00518298
862;13.2292;0.00367734
866;13.3404;0.00485394
870;13.4614;0.00297679
874;13.5724;0.00337599
878;13.6839;0.0045754
882;13.773;0.00526311
886;13.8626;0.0033055
890;13.9525;0.00346933
894;14.0625;0.0046148
898;14.1712;0.00412754
902;14.3024;0.0055497
906;14.4485;0.00355344
910;14.585;0.00473192
914;14.7247;0.00504175
918;14.8603;0.00487179
922;15.0021;0.00770592
926;15.11;0.00830369
930;15.214;0.00375212
934;15.3319;0.00692831
938;15.4267;0.00791434
942;15.5193;0.0085289
946;15.6154;0.00759881
950;15.7;0.00713776
954;15.7902;0.0103116
958;15.8581;0.00726694
962;15.9409;0.00919371
966;16.0413;0.00867533
970;16.1116;0.00804345
974;16.1951;0.0060734
978;16.2992;0.0105643
982;16.3888;0.0144223
986;16.4829;0.0109661
990;16.5596;0.0123102
994;16.6906;0.0132168
998;16.7941;0.0219409
1002;16.8632;0.0148697
1006;17.0516;0.0146451
1010;17.0908;0.0131443
1014;17.2472;0.0312407
1018;17.4613;0.0388707
1022;17.5811;0.0395314
1026;17.6845;0.0300388
1030;17.8641;0.0345108
1034;17.8933;0.0639568
1038;18.1215;0.0387474
1042;18.1984;0.0451305
1046;18.413;0.0446865
1050;18.4347;0.0879367
1054;18.4904;0.0581031
1058;18.9696;0.0746499
1062;19.0387;0.100794
1066;18.8727;0.081881
1070;19.094;0.104325
1074;19.4983;0.108115
1078;19.2492;0.111696
1082;19.1759;0.153704
1086;19.9653;0.167827
1090;19.345;0.223225
1094;19.4166;0.294083
1098;19.1982;0.388805
1100;19.1475;0.248306