File: data-raw/photo-filters/Zomei-ND09-Resin-1.7mm-52mm-LYR.CSV
Wavelength (nm);Transmittance(%);Std.Dev.
190;0.0100533;0.00409312
194;0.01;0.0152864
198;0.0110866;0.00759088
202;0.01;0.0099162
206;0.01;0.00690939
210;0.01;0.0224636
214;0.01;0.00694472
218;0.01;0.0146088
222;0.0100112;0.0091277
226;0.01;0.00621385
230;0.01;0.0327943
234;0.01;0.0333704
238;0.01;0.00410187
242;0.01;0.00695403
246;0.01;0.0142678
250;0.01;0.0130637
254;0.01;0.00639748
258;0.0100425;0.00578463
262;0.0185019;0.004366
266;0.0214626;0.0016713
270;0.0291512;0.00318052
274;0.0127827;0.00456396
278;0.0100408;0.00964072
282;0.01;0.0134929
286;0.0119672;0.00357311
290;0.01;0.00410384
294;0.0102422;0.00763984
298;0.0100181;0.0127603
302;0.01;0.00474646
306;0.01;0.00575648
310;0.01;0.016247
314;0.01;0.00873184
318;0.01;0.0191716
322;0.01;0.0161222
326;0.01;0.0140026
330;0.01;0.0128303
334;0.01;0.0198152
338;0.0100145;0.0125104
342;0.01;0.00733547
346;0.0162983;0.0158136
350;0.010805;0.0122816
354;0.0223517;0.0101095
358;0.0101641;0.0104396
362;0.0141102;0.00885081
366;0.0140602;0.00572416
370;0.0270529;0.00813393
374;0.124441;0.0110136
378;0.353186;0.00646035
382;0.7239;0.00389688
386;1.5553;0.0058867
390;2.61033;0.00696175
394;3.72525;0.00364457
398;4.78951;0.00551078
402;5.62339;0.00475184
406;6.3435;0.00592696
410;6.9193;0.00428692
414;7.44613;0.00697806
418;7.93309;0.00576423
422;8.47946;0.00615841
426;8.98129;0.00886471
430;9.5831;0.00776874
434;10.1583;0.00911956
438;10.7345;0.00858019
442;11.2985;0.00747405
446;11.8494;0.00845334
450;12.3364;0.00373357
454;12.7417;0.00528453
458;13.1408;0.00992216
462;13.436;0.00912345
466;13.6887;0.00641144
470;13.8698;0.0110243
474;14.0673;0.00662445
478;14.1847;0.00743503
482;14.2526;0.00481352
486;14.4025;0.00337695
490;14.2532;0.00629333
494;14.1807;0.00585441
498;14.075;0.00571281
502;13.9486;0.00594853
506;13.7932;0.00473309
510;13.6169;0.00843922
514;13.4531;0.003716
518;13.2097;0.00509135
522;12.9023;0.00557551
526;12.5224;0.00571514
530;12.0846;0.00366351
534;11.6112;0.00470119
538;11.1752;0.00338987
542;10.8115;0.00573876
546;10.5459;0.00344891
550;10.3472;0.00458313
554;10.1872;0.00445072
558;9.97917;0.00387267
562;9.70429;0.00289468
566;9.34732;0.00333797
570;8.93064;0.00351676
574;8.50771;0.00255749
578;8.1436;0.00312476
582;7.94335;0.00294233
586;7.93216;0.00242872
590;8.15952;0.00436418
594;8.56977;0.00520657
598;9.08289;0.00191001
602;9.57592;0.00351273
606;9.96584;0.004857
610;10.1887;0.00361581
614;10.2331;0.00373478
618;10.1499;0.00281862
622;10.056;0.00251459
626;9.89606;0.00361374
630;10.0617;0.00355111
634;10.545;0.00414202
638;11.4147;0.00407308
642;12.7447;0.00781211
646;14.4165;0.00389212
650;16.231;0.00412724
654;18.2137;0.00595454
658;20.0534;0.00513086
662;22.0215;0.00479872
666;23.6176;0.00546821
670;25.0826;0.00372722
674;26.2332;0.00438061
678;27.2308;0.00488094
682;28.0631;0.00538842
686;28.7552;0.00379271
690;29.3557;0.00545101
694;29.8619;0.00507883
698;30.3323;0.00677365
702;30.7532;0.0054592
706;31.1154;0.00504151
710;31.4638;0.00478845
714;31.7824;0.00573587
718;32.0948;0.00460348
722;32.3863;0.00551252
726;32.656;0.00503478
730;32.9229;0.00657694
734;33.18;0.00645833
738;33.4171;0.00512224
742;33.6441;0.00512267
746;33.8808;0.00523063
750;34.1;0.00571306
754;34.2857;0.0069911
758;34.502;0.00699101
762;34.6657;0.00726106
766;34.8568;0.00488083
770;35.013;0.0066546
774;35.1581;0.00778559
778;35.3455;0.00469984
782;35.4867;0.0065438
786;35.607;0.00600169
790;35.7321;0.0045875
794;35.86;0.0067807
798;35.9959;0.00512735
802;36.1293;0.00719302
806;36.2411;0.00699059
810;36.3728;0.0068621
814;36.4822;0.00590808
818;36.6087;0.00556041
822;36.7598;0.00676244
826;36.9026;0.00643744
830;37.0498;0.00677867
834;37.1888;0.00670922
838;37.3388;0.0084818
842;37.4976;0.00915825
846;37.6587;0.00979984
850;37.8202;0.00760259
854;37.9766;0.00596701
858;38.1431;0.00775009
862;38.3075;0.00527035
866;38.4614;0.00762079
870;38.6247;0.0110222
874;38.7891;0.00824223
878;38.9496;0.00734763
882;39.0638;0.00731543
886;39.1663;0.00680724
890;39.2784;0.00762916
894;39.4412;0.00645039
898;39.6298;0.00780502
902;39.8694;0.00717161
906;40.1227;0.0073845
910;40.4012;0.00897123
914;40.6789;0.00792375
918;40.9451;0.00863834
922;41.1919;0.0104438
926;41.4118;0.00990399
930;41.6139;0.0112919
934;41.8567;0.00991541
938;42.0361;0.0109887
942;42.2136;0.00974184
946;42.385;0.0125853
950;42.5523;0.0118919
954;42.7202;0.0101675
958;42.8344;0.0120295
962;42.9727;0.0115202
966;43.1089;0.0170042
970;43.2164;0.0111306
974;43.3132;0.0184346
978;43.4366;0.0134345
982;43.4958;0.0131642
986;43.5814;0.0198445
990;43.6585;0.0176167
994;43.7467;0.0211808
998;43.8274;0.0289256
1002;43.872;0.0277042
1006;43.9606;0.0385256
1010;44.1261;0.0379323
1014;44.1662;0.0328618
1018;44.3606;0.0374944
1022;44.4391;0.0300649
1026;44.5913;0.0374311
1030;44.6909;0.054423
1034;44.7848;0.0613665
1038;44.9374;0.0680388
1042;45.0173;0.0527047
1046;44.9931;0.0875304
1050;45.3854;0.0828273
1054;45.3382;0.0699763
1058;45.3298;0.118572
1062;45.5592;0.135051
1066;45.6171;0.160102
1070;45.7531;0.129183
1074;45.621;0.166371
1078;45.5121;0.21917
1082;46.1958;0.226062
1086;45.5892;0.178814
1090;45.7908;0.242584
1094;45.9183;0.31782
1098;45.6523;0.283682
1100;45.5167;0.276067